VanDen Berk Composite QSO spectrum 2001
1020	1.32517
1020.5	1.3419
1021	1.35863
1021.5	1.37539
1022	1.39218
1022.5	1.40897
1023	1.42575
1023.5	1.44249
1024	1.45913
1024.5	1.47565
1025	1.49197
1025.5	1.50803
1026	1.52378
1026.5	1.53912
1027	1.554
1027.5	1.56834
1028	1.58206
1028.5	1.59507
1029	1.60729
1029.5	1.61859
1030	1.62886
1030.5	1.63796
1031	1.64575
1031.5	1.65215
1032	1.65706
1032.5	1.66043
1033	1.66222
1033.5	1.66233
1034	1.66068
1034.5	1.65718
1035	1.65181
1035.5	1.64456
1036	1.63544
1036.5	1.62451
1037	1.61192
1037.5	1.59782
1038	1.58242
1038.5	1.56594
1039	1.54859
1039.5	1.5306
1040	1.51218
1040.5	1.49358
1041	1.47501
1041.5	1.45668
1042	1.4388
1042.5	1.42154
1043	1.40502
1043.5	1.38931
1044	1.37445
1044.5	1.36048
1045	1.34738
1045.5	1.33514
1046	1.32375
1046.5	1.31316
1047	1.30336
1047.5	1.2943
1048	1.28594
1048.5	1.27825
1049	1.27125
1049.5	1.2649
1050	1.25919
1050.5	1.25409
1051	1.24957
1051.5	1.24562
1052	1.24217
1052.5	1.23919
1053	1.23662
1053.5	1.23443
1054	1.23258
1054.5	1.23104
1055	1.22978
1055.5	1.22878
1056	1.22801
1056.5	1.22745
1057	1.22708
1057.5	1.22687
1058	1.2268
1058.5	1.22686
1059	1.22702
1059.5	1.22727
1060	1.22759
1060.5	1.22799
1061	1.22846
1061.5	1.22897
1062	1.22954
1062.5	1.23014
1063	1.23077
1063.5	1.23143
1064	1.2321
1064.5	1.23278
1065	1.23345
1065.5	1.23411
1066	1.23474
1066.5	1.23531
1067	1.23582
1067.5	1.23626
1068	1.23662
1068.5	1.23687
1069	1.23702
1069.5	1.23705
1070	1.23696
1070.5	1.23672
1071	1.23632
1071.5	1.23577
1072	1.23504
1072.5	1.23413
1073	1.23302
1073.5	1.23172
1074	1.23022
1074.5	1.22851
1075	1.22659
1075.5	1.22445
1076	1.2221
1076.5	1.21953
1077	1.21678
1077.5	1.21384
1078	1.21075
1078.5	1.20752
1079	1.20418
1079.5	1.20074
1080	1.19724
1080.5	1.19367
1081	1.19006
1081.5	1.18642
1082	1.18275
1082.5	1.17907
1083	1.17536
1083.5	1.17165
1084	1.16793
1084.5	1.16422
1085	1.16051
1085.5	1.15682
1086	1.15317
1086.5	1.14955
1087	1.14597
1087.5	1.14245
1088	1.13898
1088.5	1.13557
1089	1.13223
1089.5	1.12895
1090	1.12576
1090.5	1.12265
1091	1.11963
1091.5	1.11671
1092	1.11389
1092.5	1.11117
1093	1.10857
1093.5	1.10609
1094	1.10371
1094.5	1.10146
1095	1.09933
1095.5	1.09733
1096	1.09547
1096.5	1.09375
1097	1.09217
1097.5	1.09075
1098	1.08947
1098.5	1.08833
1099	1.08733
1099.5	1.08648
1100	1.08576
1100.5	1.08518
1101	1.08473
1101.5	1.08441
1102	1.08421
1102.5	1.08414
1103	1.08417
1103.5	1.08432
1104	1.08458
1104.5	1.08493
1105	1.08538
1105.5	1.08592
1106	1.08655
1106.5	1.08726
1107	1.08805
1107.5	1.08891
1108	1.08984
1108.5	1.09084
1109	1.09189
1109.5	1.093
1110	1.09416
1110.5	1.09536
1111	1.09659
1111.5	1.09787
1112	1.09917
1112.5	1.10051
1113	1.10187
1113.5	1.10324
1114	1.10464
1114.5	1.10604
1115	1.10744
1115.5	1.10885
1116	1.11025
1116.5	1.11164
1117	1.113
1117.5	1.11435
1118	1.11565
1118.5	1.1169
1119	1.1181
1119.5	1.11922
1120	1.12026
1120.5	1.12121
1121	1.12204
1121.5	1.12277
1122	1.12337
1122.5	1.12386
1123	1.12423
1123.5	1.12447
1124	1.12458
1124.5	1.12457
1125	1.12444
1125.5	1.12419
1126	1.12382
1126.5	1.12333
1127	1.12273
1127.5	1.122
1128	1.12116
1128.5	1.1202
1129	1.11915
1129.5	1.11799
1130	1.11674
1130.5	1.11541
1131	1.11399
1131.5	1.1125
1132	1.11094
1132.5	1.10932
1133	1.10765
1133.5	1.10596
1134	1.10424
1134.5	1.10252
1135	1.1008
1135.5	1.0991
1136	1.09743
1136.5	1.09579
1137	1.09419
1137.5	1.09264
1138	1.09113
1138.5	1.08968
1139	1.08829
1139.5	1.08696
1140	1.0857
1140.5	1.08449
1141	1.08335
1141.5	1.08228
1142	1.08127
1142.5	1.08034
1143	1.07947
1143.5	1.07867
1144	1.07794
1144.5	1.07729
1145	1.0767
1145.5	1.0762
1146	1.07577
1146.5	1.07541
1147	1.07513
1147.5	1.07492
1148	1.07479
1148.5	1.07474
1149	1.07477
1149.5	1.07488
1150	1.07506
1150.5	1.07533
1151	1.07568
1151.5	1.07611
1152	1.07663
1152.5	1.07723
1153	1.07793
1153.5	1.07871
1154	1.07958
1154.5	1.08055
1155	1.0816
1155.5	1.08275
1156	1.084
1156.5	1.08534
1157	1.08678
1157.5	1.08831
1158	1.08995
1158.5	1.09168
1159	1.09352
1159.5	1.09547
1160	1.09752
1160.5	1.09968
1161	1.10195
1161.5	1.10433
1162	1.10682
1162.5	1.10942
1163	1.11214
1163.5	1.11496
1164	1.11788
1164.5	1.12092
1165	1.12406
1165.5	1.1273
1166	1.13064
1166.5	1.13409
1167	1.13762
1167.5	1.14125
1168	1.14497
1168.5	1.14878
1169	1.15267
1169.5	1.15665
1170	1.16071
1170.5	1.16484
1171	1.16906
1171.5	1.17335
1172	1.17771
1172.5	1.18216
1173	1.18668
1173.5	1.19128
1174	1.19596
1174.5	1.20073
1175	1.20558
1175.5	1.21053
1176	1.21556
1176.5	1.2207
1177	1.22593
1177.5	1.23127
1178	1.23671
1178.5	1.24226
1179	1.24792
1179.5	1.25371
1180	1.25963
1180.5	1.2657
1181	1.27193
1181.5	1.27833
1182	1.28492
1182.5	1.29172
1183	1.29873
1183.5	1.30598
1184	1.31347
1184.5	1.3212
1185	1.32918
1185.5	1.33744
1186	1.34596
1186.5	1.35475
1187	1.36383
1187.5	1.37319
1188	1.38283
1188.5	1.39275
1189	1.40297
1189.5	1.41348
1190	1.4243
1190.5	1.43544
1191	1.4469
1191.5	1.45871
1192	1.47089
1192.5	1.48344
1193	1.49639
1193.5	1.50973
1194	1.52349
1194.5	1.53768
1195	1.55234
1195.5	1.56747
1196	1.58311
1196.5	1.59929
1197	1.61608
1197.5	1.63351
1198	1.65162
1198.5	1.67045
1199	1.69005
1199.5	1.71045
1200	1.73172
1200.5	1.7539
1201	1.77702
1201.5	1.80112
1202	1.82627
1202.5	1.85254
1203	1.87999
1203.5	1.90867
1204	1.93867
1204.5	1.97004
1205	2.00284
1205.5	2.03716
1206	2.07311
1206.5	2.1109
1207	2.15081
1207.5	2.19311
1208	2.23812
1208.5	2.28624
1209	2.33788
1209.5	2.39342
1210	2.45308
1210.5	2.51657
1211	2.58326
1211.5	2.65249
1212	2.72341
1212.5	2.7958
1213	2.87157
1213.5	2.95399
1214	3.04311
1214.5	3.13028
1215	3.2049
1215.5	3.2699
1216	3.32005
1216.5	3.33419
1217	3.31661
1217.5	3.27878
1218	3.2231
1218.5	3.1615
1219	3.10093
1219.5	3.03713
1220	2.97101
1220.5	2.90369
1221	2.83897
1221.5	2.77234
1222	2.70798
1222.5	2.64844
1223	2.59069
1223.5	2.53435
1224	2.48023
1224.5	2.42879
1225	2.37963
1225.5	2.33218
1226	2.28695
1226.5	2.24585
1227	2.21054
1227.5	2.18058
1228	2.15374
1228.5	2.12841
1229	2.10508
1229.5	2.08502
1230	2.06856
1230.5	2.05526
1231	2.04442
1231.5	2.03517
1232	2.02649
1232.5	2.01781
1233	2.00943
1233.5	2.00204
1234	1.99649
1234.5	1.99315
1235	1.99174
1235.5	1.9917
1236	1.99222
1236.5	1.99254
1237	1.99208
1237.5	1.99047
1238	1.98791
1238.5	1.98464
1239	1.9804
1239.5	1.97458
1240	1.96656
1240.5	1.95628
1241	1.94386
1241.5	1.92922
1242	1.91201
1242.5	1.8919
1243	1.86901
1243.5	1.84364
1244	1.8157
1244.5	1.7858
1245	1.75498
1245.5	1.72352
1246	1.69168
1246.5	1.66
1247	1.62918
1247.5	1.59964
1248	1.57148
1248.5	1.54475
1249	1.51969
1249.5	1.49638
1250	1.47468
1250.5	1.4544
1251	1.43537
1251.5	1.41766
1252	1.40127
1252.5	1.38612
1253	1.37198
1253.5	1.35863
1254	1.34579
1254.5	1.33336
1255	1.32139
1255.5	1.30993
1256	1.29906
1256.5	1.28894
1257	1.27968
1257.5	1.27124
1258	1.2636
1258.5	1.25666
1259	1.25033
1259.5	1.24447
1260	1.239
1260.5	1.23384
1261	1.2289
1261.5	1.22408
1262	1.21926
1262.5	1.21435
1263	1.20923
1263.5	1.20381
1264	1.19803
1264.5	1.19188
1265	1.18538
1265.5	1.17861
1266	1.17165
1266.5	1.16457
1267	1.15745
1267.5	1.15027
1268	1.143
1268.5	1.13554
1269	1.12787
1269.5	1.11999
1270	1.11193
1270.5	1.10369
1271	1.09518
1271.5	1.08648
1272	1.07772
1272.5	1.06893
1273	1.06022
1273.5	1.0517
1274	1.04352
1274.5	1.03576
1275	1.02847
1275.5	1.02154
1276	1.01469
1276.5	1.00767
1277	1.00028
1277.5	0.9934
1278	0.98751
1278.5	0.98233
1279	0.97752
1279.5	0.97294
1280	0.96861
1280.5	0.96454
1281	0.96074
1281.5	0.95723
1282	0.95401
1282.5	0.95106
1283	0.94836
1283.5	0.94589
1284	0.94362
1284.5	0.94155
1285	0.93967
1285.5	0.93797
1286	0.93645
1286.5	0.93512
1287	0.93396
1287.5	0.93298
1288	0.93218
1288.5	0.93155
1289	0.93111
1289.5	0.93083
1290	0.93073
1290.5	0.93079
1291	0.931
1291.5	0.93137
1292	0.93189
1292.5	0.93255
1293	0.93336
1293.5	0.93432
1294	0.93541
1294.5	0.93664
1295	0.93801
1295.5	0.93952
1296	0.9412
1296.5	0.94304
1297	0.94507
1297.5	0.94727
1298	0.94965
1298.5	0.95218
1299	0.95485
1299.5	0.95766
1300	0.96059
1300.5	0.96363
1301	0.96676
1301.5	0.96995
1302	0.97317
1302.5	0.97638
1303	0.97952
1303.5	0.98254
1304	0.98537
1304.5	0.98798
1305	0.99028
1305.5	0.99219
1306	0.99365
1306.5	0.99462
1307	0.99507
1307.5	0.99497
1308	0.99439
1308.5	0.99333
1309	0.99181
1309.5	0.98987
1310	0.98751
1310.5	0.98476
1311	0.98168
1311.5	0.97828
1312	0.97462
1312.5	0.97071
1313	0.96656
1313.5	0.9622
1314	0.95765
1314.5	0.95294
1315	0.94812
1315.5	0.94322
1316	0.93831
1316.5	0.93355
1317	0.92906
1317.5	0.92488
1318	0.92099
1318.5	0.91741
1319	0.91414
1319.5	0.91112
1320	0.90835
1320.5	0.9058
1321	0.90347
1321.5	0.90133
1322	0.8994
1322.5	0.89766
1323	0.89612
1323.5	0.89478
1324	0.89363
1324.5	0.8927
1325	0.89196
1325.5	0.89144
1326	0.89113
1326.5	0.89103
1327	0.89115
1327.5	0.89148
1328	0.89201
1328.5	0.89275
1329	0.89367
1329.5	0.89478
1330	0.89607
1330.5	0.89752
1331	0.89912
1331.5	0.90087
1332	0.90272
1332.5	0.90466
1333	0.90666
1333.5	0.90865
1334	0.91057
1334.5	0.91234
1335	0.91391
1335.5	0.91523
1336	0.91625
1336.5	0.91697
1337	0.91738
1337.5	0.91747
1338	0.91726
1338.5	0.91678
1339	0.91606
1339.5	0.91511
1340	0.91394
1340.5	0.91253
1341	0.91089
1341.5	0.90902
1342	0.90695
1342.5	0.9048
1343	0.90268
1343.5	0.90058
1344	0.89852
1344.5	0.89649
1345	0.89449
1345.5	0.89252
1346	0.89058
1346.5	0.88867
1347	0.88678
1347.5	0.88493
1348	0.88313
1348.5	0.8814
1349	0.87973
1349.5	0.87811
1350	0.87654
1350.5	0.875
1351	0.87351
1351.5	0.87207
1352	0.87067
1352.5	0.86934
1353	0.86806
1353.5	0.86684
1354	0.8657
1354.5	0.86464
1355	0.86366
1355.5	0.86277
1356	0.86196
1356.5	0.86125
1357	0.86062
1357.5	0.86007
1358	0.85959
1358.5	0.85919
1359	0.85886
1359.5	0.8586
1360	0.8584
1360.5	0.85825
1361	0.85815
1361.5	0.85809
1362	0.85806
1362.5	0.85807
1363	0.85811
1363.5	0.8582
1364	0.85832
1364.5	0.85849
1365	0.8587
1365.5	0.85896
1366	0.85926
1366.5	0.8596
1367	0.85998
1367.5	0.8604
1368	0.86086
1368.5	0.86136
1369	0.8619
1369.5	0.86248
1370	0.86311
1370.5	0.86379
1371	0.86452
1371.5	0.8653
1372	0.86614
1372.5	0.86705
1373	0.86802
1373.5	0.86906
1374	0.87019
1374.5	0.87139
1375	0.87268
1375.5	0.87407
1376	0.87556
1376.5	0.87716
1377	0.87887
1377.5	0.88071
1378	0.88267
1378.5	0.88476
1379	0.88698
1379.5	0.88934
1380	0.89184
1380.5	0.89448
1381	0.89726
1381.5	0.90019
1382	0.90328
1382.5	0.90653
1383	0.90993
1383.5	0.9135
1384	0.91723
1384.5	0.92112
1385	0.92518
1385.5	0.92939
1386	0.93375
1386.5	0.93824
1387	0.94284
1387.5	0.94753
1388	0.95227
1388.5	0.95705
1389	0.96181
1389.5	0.96654
1390	0.97121
1390.5	0.9758
1391	0.98032
1391.5	0.98474
1392	0.98907
1392.5	0.9933
1393	0.9974
1393.5	1.00138
1394	1.00521
1394.5	1.00889
1395	1.0124
1395.5	1.01573
1396	1.01887
1396.5	1.0218
1397	1.02451
1397.5	1.02697
1398	1.02916
1398.5	1.03106
1399	1.03265
1399.5	1.03391
1400	1.0348
1400.5	1.03532
1401	1.03542
1401.5	1.0351
1402	1.03433
1402.5	1.03306
1403	1.03129
1403.5	1.02898
1404	1.02614
1404.5	1.02276
1405	1.01886
1405.5	1.01444
1406	1.00952
1406.5	1.00414
1407	0.99834
1407.5	0.99217
1408	0.98569
1408.5	0.97897
1409	0.9721
1409.5	0.96517
1410	0.95824
1410.5	0.95139
1411	0.94467
1411.5	0.93813
1412	0.93181
1412.5	0.92573
1413	0.91989
1413.5	0.9143
1414	0.90897
1414.5	0.90387
1415	0.899
1415.5	0.89432
1416	0.88982
1416.5	0.88546
1417	0.88123
1417.5	0.87713
1418	0.87314
1418.5	0.86929
1419	0.86559
1419.5	0.86205
1420	0.85867
1420.5	0.85546
1421	0.85241
1421.5	0.84951
1422	0.84675
1422.5	0.84413
1423	0.84164
1423.5	0.83927
1424	0.837
1424.5	0.83484
1425	0.83276
1425.5	0.83076
1426	0.82882
1426.5	0.82693
1427	0.82507
1427.5	0.82324
1428	0.82144
1428.5	0.81965
1429	0.81788
1429.5	0.81612
1430	0.81436
1430.5	0.81262
1431	0.81089
1431.5	0.80917
1432	0.80748
1432.5	0.80581
1433	0.80417
1433.5	0.80256
1434	0.80097
1434.5	0.79941
1435	0.79788
1435.5	0.79637
1436	0.7949
1436.5	0.79345
1437	0.79203
1437.5	0.79065
1438	0.7893
1438.5	0.78799
1439	0.78673
1439.5	0.7855
1440	0.78433
1440.5	0.7832
1441	0.78214
1441.5	0.78112
1442	0.78017
1442.5	0.77927
1443	0.77843
1443.5	0.77765
1444	0.77691
1444.5	0.77622
1445	0.77557
1445.5	0.77497
1446	0.7744
1446.5	0.77387
1447	0.77337
1447.5	0.77289
1448	0.77245
1448.5	0.77202
1449	0.77162
1449.5	0.77124
1450	0.77087
1450.5	0.77052
1451	0.77019
1451.5	0.76988
1452	0.76959
1452.5	0.76932
1453	0.76907
1453.5	0.76884
1454	0.76864
1454.5	0.76846
1455	0.7683
1455.5	0.76817
1456	0.76806
1456.5	0.76797
1457	0.76791
1457.5	0.76786
1458	0.76783
1458.5	0.76781
1459	0.7678
1459.5	0.76781
1460	0.76781
1460.5	0.76782
1461	0.76783
1461.5	0.76785
1462	0.76786
1462.5	0.76787
1463	0.76787
1463.5	0.76787
1464	0.76787
1464.5	0.76787
1465	0.76787
1465.5	0.76787
1466	0.76787
1466.5	0.76787
1467	0.76787
1467.5	0.76789
1468	0.76791
1468.5	0.76795
1469	0.76799
1469.5	0.76806
1470	0.76814
1470.5	0.76823
1471	0.76836
1471.5	0.7685
1472	0.76867
1472.5	0.76886
1473	0.76907
1473.5	0.76931
1474	0.76956
1474.5	0.76984
1475	0.77014
1475.5	0.77045
1476	0.77078
1476.5	0.77112
1477	0.77149
1477.5	0.77187
1478	0.77227
1478.5	0.77269
1479	0.77312
1479.5	0.77356
1480	0.77401
1480.5	0.77446
1481	0.77492
1481.5	0.77538
1482	0.77584
1482.5	0.7763
1483	0.77676
1483.5	0.77721
1484	0.77766
1484.5	0.77811
1485	0.77854
1485.5	0.77898
1486	0.77941
1486.5	0.77983
1487	0.78026
1487.5	0.78069
1488	0.78111
1488.5	0.78155
1489	0.78199
1489.5	0.78243
1490	0.78289
1490.5	0.78335
1491	0.78383
1491.5	0.78432
1492	0.78483
1492.5	0.78535
1493	0.78589
1493.5	0.78644
1494	0.78702
1494.5	0.78761
1495	0.78823
1495.5	0.78887
1496	0.78954
1496.5	0.79022
1497	0.79094
1497.5	0.79167
1498	0.79243
1498.5	0.79323
1499	0.79404
1499.5	0.79489
1500	0.79576
1500.5	0.79666
1501	0.79758
1501.5	0.79853
1502	0.79951
1502.5	0.80052
1503	0.80155
1503.5	0.8026
1504	0.80368
1504.5	0.80479
1505	0.80592
1505.5	0.80707
1506	0.80826
1506.5	0.80946
1507	0.8107
1507.5	0.81197
1508	0.81327
1508.5	0.81461
1509	0.81599
1509.5	0.81741
1510	0.81887
1510.5	0.82038
1511	0.82194
1511.5	0.82356
1512	0.82524
1512.5	0.82698
1513	0.82881
1513.5	0.83072
1514	0.83274
1514.5	0.83487
1515	0.83712
1515.5	0.83952
1516	0.84206
1516.5	0.84476
1517	0.84762
1517.5	0.85066
1518	0.85387
1518.5	0.85726
1519	0.86084
1519.5	0.86462
1520	0.86859
1520.5	0.87276
1521	0.87712
1521.5	0.88166
1522	0.88638
1522.5	0.89125
1523	0.89629
1523.5	0.90149
1524	0.90685
1524.5	0.91237
1525	0.91805
1525.5	0.92388
1526	0.92987
1526.5	0.93601
1527	0.9423
1527.5	0.94874
1528	0.95533
1528.5	0.96207
1529	0.96895
1529.5	0.97598
1530	0.98317
1530.5	0.99052
1531	0.99805
1531.5	1.00577
1532	1.01366
1532.5	1.02172
1533	1.02992
1533.5	1.03822
1534	1.04663
1534.5	1.05512
1535	1.06369
1535.5	1.07233
1536	1.08103
1536.5	1.08981
1537	1.09868
1537.5	1.10767
1538	1.11684
1538.5	1.12621
1539	1.13584
1539.5	1.14579
1540	1.15612
1540.5	1.1669
1541	1.1781
1541.5	1.18969
1542	1.20153
1542.5	1.21344
1543	1.22538
1543.5	1.23728
1544	1.24917
1544.5	1.26099
1545	1.27262
1545.5	1.28394
1546	1.29474
1546.5	1.30476
1547	1.31383
1547.5	1.32162
1548	1.3278
1548.5	1.33208
1549	1.33411
1549.5	1.33373
1550	1.33071
1550.5	1.32504
1551	1.31683
1551.5	1.30633
1552	1.29385
1552.5	1.27946
1553	1.26326
1553.5	1.24559
1554	1.22684
1554.5	1.20743
1555	1.1879
1555.5	1.16855
1556	1.14957
1556.5	1.13117
1557	1.11354
1557.5	1.09675
1558	1.08072
1558.5	1.06541
1559	1.05077
1559.5	1.03693
1560	1.0239
1560.5	1.01168
1561	1.0002
1561.5	0.98941
1562	0.97917
1562.5	0.96944
1563	0.96015
1563.5	0.95119
1564	0.94255
1564.5	0.9342
1565	0.92616
1565.5	0.91843
1566	0.91099
1566.5	0.90384
1567	0.89697
1567.5	0.89037
1568	0.88403
1568.5	0.87795
1569	0.87211
1569.5	0.86649
1570	0.86106
1570.5	0.85582
1571	0.85076
1571.5	0.84589
1572	0.84119
1572.5	0.83668
1573	0.83235
1573.5	0.82819
1574	0.82419
1574.5	0.82034
1575	0.81665
1575.5	0.8131
1576	0.80969
1576.5	0.80641
1577	0.80327
1577.5	0.80026
1578	0.79738
1578.5	0.79464
1579	0.79204
1579.5	0.78957
1580	0.78723
1580.5	0.78502
1581	0.78293
1581.5	0.78096
1582	0.77909
1582.5	0.77731
1583	0.77563
1583.5	0.77403
1584	0.7725
1584.5	0.77105
1585	0.76966
1585.5	0.76834
1586	0.76706
1586.5	0.76583
1587	0.76465
1587.5	0.76351
1588	0.76241
1588.5	0.76135
1589	0.76032
1589.5	0.75933
1590	0.75837
1590.5	0.75744
1591	0.75655
1591.5	0.75569
1592	0.75486
1592.5	0.75406
1593	0.7533
1593.5	0.75257
1594	0.75188
1594.5	0.75122
1595	0.75059
1595.5	0.75
1596	0.74944
1596.5	0.74891
1597	0.74841
1597.5	0.74794
1598	0.7475
1598.5	0.74709
1599	0.74671
1599.5	0.74634
1600	0.746
1600.5	0.74568
1601	0.74537
1601.5	0.74509
1602	0.74482
1602.5	0.74456
1603	0.74431
1603.5	0.74408
1604	0.74385
1604.5	0.74363
1605	0.74342
1605.5	0.74322
1606	0.74302
1606.5	0.74283
1607	0.74264
1607.5	0.74247
1608	0.74229
1608.5	0.74213
1609	0.74197
1609.5	0.74181
1610	0.74166
1610.5	0.74152
1611	0.74138
1611.5	0.74125
1612	0.74112
1612.5	0.741
1613	0.74088
1613.5	0.74077
1614	0.74066
1614.5	0.74055
1615	0.74045
1615.5	0.74035
1616	0.74025
1616.5	0.74015
1617	0.74006
1617.5	0.73997
1618	0.73988
1618.5	0.73979
1619	0.73971
1619.5	0.73962
1620	0.73954
1620.5	0.73945
1621	0.73937
1621.5	0.73928
1622	0.73918
1622.5	0.73908
1623	0.73898
1623.5	0.73887
1624	0.73876
1624.5	0.73863
1625	0.7385
1625.5	0.73836
1626	0.73821
1626.5	0.73805
1627	0.73788
1627.5	0.7377
1628	0.7375
1628.5	0.7373
1629	0.73708
1629.5	0.73684
1630	0.7366
1630.5	0.73633
1631	0.73606
1631.5	0.73576
1632	0.73546
1632.5	0.73514
1633	0.73481
1633.5	0.73446
1634	0.7341
1634.5	0.73373
1635	0.73335
1635.5	0.73296
1636	0.73256
1636.5	0.73214
1637	0.73171
1637.5	0.73127
1638	0.73081
1638.5	0.73034
1639	0.72986
1639.5	0.72937
1640	0.72886
1640.5	0.72834
1641	0.72782
1641.5	0.72728
1642	0.72673
1642.5	0.72618
1643	0.72562
1643.5	0.72506
1644	0.72449
1644.5	0.72393
1645	0.72336
1645.5	0.7228
1646	0.72224
1646.5	0.72169
1647	0.72114
1647.5	0.72059
1648	0.72005
1648.5	0.71952
1649	0.71899
1649.5	0.71848
1650	0.71797
1650.5	0.71748
1651	0.717
1651.5	0.71653
1652	0.71608
1652.5	0.71565
1653	0.71522
1653.5	0.71481
1654	0.71441
1654.5	0.71403
1655	0.71365
1655.5	0.71328
1656	0.71291
1656.5	0.71255
1657	0.71218
1657.5	0.71181
1658	0.71144
1658.5	0.71105
1659	0.71066
1659.5	0.71025
1660	0.70982
1660.5	0.70937
1661	0.70891
1661.5	0.70841
1662	0.70789
1662.5	0.70734
1663	0.70677
1663.5	0.70615
1664	0.70551
1664.5	0.70482
1665	0.7041
1665.5	0.70333
1666	0.70252
1666.5	0.70167
1667	0.70078
1667.5	0.69984
1668	0.69885
1668.5	0.69782
1669	0.69675
1669.5	0.69564
1670	0.69449
1670.5	0.69331
1671	0.6921
1671.5	0.69086
1672	0.6896
1672.5	0.68832
1673	0.68703
1673.5	0.68572
1674	0.68441
1674.5	0.68308
1675	0.68175
1675.5	0.6804
1676	0.67906
1676.5	0.67771
1677	0.67636
1677.5	0.67502
1678	0.67368
1678.5	0.67235
1679	0.67103
1679.5	0.66973
1680	0.66844
1680.5	0.66717
1681	0.66592
1681.5	0.66468
1682	0.66347
1682.5	0.66228
1683	0.6611
1683.5	0.65996
1684	0.65883
1684.5	0.65773
1685	0.65665
1685.5	0.65559
1686	0.65457
1686.5	0.65357
1687	0.6526
1687.5	0.65166
1688	0.65076
1688.5	0.64989
1689	0.64906
1689.5	0.64826
1690	0.64751
1690.5	0.64679
1691	0.6461
1691.5	0.64545
1692	0.64484
1692.5	0.64425
1693	0.6437
1693.5	0.64318
1694	0.64269
1694.5	0.64223
1695	0.6418
1695.5	0.64139
1696	0.64101
1696.5	0.64066
1697	0.64032
1697.5	0.64001
1698	0.63973
1698.5	0.63946
1699	0.63921
1699.5	0.63897
1700	0.63876
1700.5	0.63856
1701	0.63837
1701.5	0.6382
1702	0.63805
1702.5	0.63791
1703	0.63779
1703.5	0.63768
1704	0.63759
1704.5	0.63751
1705	0.63745
1705.5	0.63741
1706	0.63738
1706.5	0.63737
1707	0.63738
1707.5	0.6374
1708	0.63743
1708.5	0.63748
1709	0.63755
1709.5	0.63762
1710	0.6377
1710.5	0.63779
1711	0.63789
1711.5	0.63799
1712	0.6381
1712.5	0.63821
1713	0.63832
1713.5	0.63844
1714	0.63855
1714.5	0.63866
1715	0.63876
1715.5	0.63886
1716	0.63896
1716.5	0.63905
1717	0.63913
1717.5	0.63921
1718	0.63928
1718.5	0.63934
1719	0.63939
1719.5	0.63944
1720	0.63948
1720.5	0.63951
1721	0.63953
1721.5	0.63955
1722	0.63956
1722.5	0.63956
1723	0.63956
1723.5	0.63955
1724	0.63954
1724.5	0.63953
1725	0.63951
1725.5	0.63948
1726	0.63945
1726.5	0.63942
1727	0.63939
1727.5	0.63935
1728	0.63931
1728.5	0.63927
1729	0.63924
1729.5	0.6392
1730	0.63916
1730.5	0.63913
1731	0.63909
1731.5	0.63906
1732	0.63902
1732.5	0.63899
1733	0.63896
1733.5	0.63893
1734	0.63891
1734.5	0.63888
1735	0.63885
1735.5	0.63881
1736	0.63878
1736.5	0.63874
1737	0.6387
1737.5	0.63865
1738	0.63859
1738.5	0.63854
1739	0.63847
1739.5	0.6384
1740	0.63833
1740.5	0.63824
1741	0.63816
1741.5	0.63806
1742	0.63796
1742.5	0.63785
1743	0.63773
1743.5	0.6376
1744	0.63747
1744.5	0.63732
1745	0.63717
1745.5	0.637
1746	0.63682
1746.5	0.63662
1747	0.63641
1747.5	0.63618
1748	0.63593
1748.5	0.63567
1749	0.63539
1749.5	0.63508
1750	0.63476
1750.5	0.63442
1751	0.63406
1751.5	0.63368
1752	0.63328
1752.5	0.63286
1753	0.63242
1753.5	0.63197
1754	0.6315
1754.5	0.63101
1755	0.63051
1755.5	0.63
1756	0.62947
1756.5	0.62893
1757	0.62838
1757.5	0.62783
1758	0.62727
1758.5	0.62671
1759	0.62614
1759.5	0.62558
1760	0.62502
1760.5	0.62446
1761	0.62391
1761.5	0.62337
1762	0.62283
1762.5	0.62231
1763	0.62179
1763.5	0.62128
1764	0.62079
1764.5	0.6203
1765	0.61983
1765.5	0.61937
1766	0.61892
1766.5	0.61847
1767	0.61804
1767.5	0.61762
1768	0.61721
1768.5	0.61682
1769	0.61643
1769.5	0.61605
1770	0.61568
1770.5	0.61532
1771	0.61496
1771.5	0.61462
1772	0.61429
1772.5	0.61396
1773	0.61365
1773.5	0.61335
1774	0.61305
1774.5	0.61276
1775	0.61249
1775.5	0.61222
1776	0.61196
1776.5	0.61171
1777	0.61147
1777.5	0.61124
1778	0.61101
1778.5	0.61079
1779	0.61058
1779.5	0.61037
1780	0.61017
1780.5	0.60997
1781	0.60978
1781.5	0.60959
1782	0.6094
1782.5	0.60922
1783	0.60904
1783.5	0.60886
1784	0.60868
1784.5	0.6085
1785	0.60832
1785.5	0.60814
1786	0.60795
1786.5	0.60777
1787	0.60758
1787.5	0.60739
1788	0.60719
1788.5	0.607
1789	0.6068
1789.5	0.6066
1790	0.6064
1790.5	0.6062
1791	0.60599
1791.5	0.60579
1792	0.60558
1792.5	0.60537
1793	0.60517
1793.5	0.60495
1794	0.60474
1794.5	0.60452
1795	0.60429
1795.5	0.60405
1796	0.60381
1796.5	0.60355
1797	0.60328
1797.5	0.603
1798	0.6027
1798.5	0.6024
1799	0.60208
1799.5	0.60176
1800	0.60143
1800.5	0.6011
1801	0.60078
1801.5	0.60045
1802	0.60014
1802.5	0.59983
1803	0.59952
1803.5	0.59923
1804	0.59894
1804.5	0.59865
1805	0.59838
1805.5	0.5981
1806	0.59784
1806.5	0.59757
1807	0.59731
1807.5	0.59706
1808	0.59681
1808.5	0.59656
1809	0.59631
1809.5	0.59607
1810	0.59583
1810.5	0.59559
1811	0.59536
1811.5	0.59513
1812	0.5949
1812.5	0.59468
1813	0.59446
1813.5	0.59424
1814	0.59403
1814.5	0.59382
1815	0.59362
1815.5	0.59341
1816	0.59322
1816.5	0.59302
1817	0.59283
1817.5	0.59265
1818	0.59247
1818.5	0.59229
1819	0.59212
1819.5	0.59196
1820	0.5918
1820.5	0.59165
1821	0.59151
1821.5	0.59137
1822	0.59124
1822.5	0.59112
1823	0.591
1823.5	0.5909
1824	0.5908
1824.5	0.5907
1825	0.59062
1825.5	0.59055
1826	0.59049
1826.5	0.59043
1827	0.59039
1827.5	0.59035
1828	0.59033
1828.5	0.59032
1829	0.59032
1829.5	0.59033
1830	0.59036
1830.5	0.5904
1831	0.59045
1831.5	0.59052
1832	0.5906
1832.5	0.5907
1833	0.59081
1833.5	0.59094
1834	0.59109
1834.5	0.59126
1835	0.59144
1835.5	0.59164
1836	0.59186
1836.5	0.5921
1837	0.59236
1837.5	0.59264
1838	0.59294
1838.5	0.59325
1839	0.59359
1839.5	0.59395
1840	0.59434
1840.5	0.59474
1841	0.59517
1841.5	0.59562
1842	0.59609
1842.5	0.59658
1843	0.5971
1843.5	0.59763
1844	0.59819
1844.5	0.59877
1845	0.59938
1845.5	0.6
1846	0.60064
1846.5	0.60129
1847	0.60196
1847.5	0.60265
1848	0.60334
1848.5	0.60405
1849	0.60477
1849.5	0.60549
1850	0.60622
1850.5	0.60695
1851	0.60768
1851.5	0.60841
1852	0.60914
1852.5	0.60986
1853	0.61057
1853.5	0.61128
1854	0.61198
1854.5	0.61267
1855	0.61335
1855.5	0.61401
1856	0.61466
1856.5	0.6153
1857	0.61592
1857.5	0.61653
1858	0.61711
1858.5	0.61768
1859	0.61824
1859.5	0.61877
1860	0.61929
1860.5	0.61979
1861	0.62028
1861.5	0.62075
1862	0.6212
1862.5	0.62164
1863	0.62207
1863.5	0.62248
1864	0.62288
1864.5	0.62328
1865	0.62367
1865.5	0.62405
1866	0.62443
1866.5	0.62481
1867	0.62518
1867.5	0.62557
1868	0.62595
1868.5	0.62635
1869	0.62675
1869.5	0.62716
1870	0.62759
1870.5	0.62804
1871	0.6285
1871.5	0.62898
1872	0.62948
1872.5	0.63001
1873	0.63056
1873.5	0.63113
1874	0.63174
1874.5	0.63238
1875	0.63305
1875.5	0.63376
1876	0.6345
1876.5	0.63529
1877	0.63611
1877.5	0.63697
1878	0.63788
1878.5	0.63883
1879	0.63983
1879.5	0.64088
1880	0.64197
1880.5	0.64312
1881	0.64433
1881.5	0.64559
1882	0.64691
1882.5	0.64829
1883	0.64973
1883.5	0.65124
1884	0.65281
1884.5	0.65445
1885	0.65615
1885.5	0.65793
1886	0.65977
1886.5	0.66169
1887	0.66368
1887.5	0.66574
1888	0.66787
1888.5	0.67007
1889	0.67235
1889.5	0.67468
1890	0.67706
1890.5	0.67949
1891	0.68196
1891.5	0.68447
1892	0.68699
1892.5	0.68954
1893	0.6921
1893.5	0.69467
1894	0.69724
1894.5	0.69981
1895	0.70238
1895.5	0.70495
1896	0.7075
1896.5	0.71005
1897	0.71259
1897.5	0.71513
1898	0.71768
1898.5	0.72023
1899	0.7228
1899.5	0.72539
1900	0.72802
1900.5	0.73069
1901	0.7334
1901.5	0.73617
1902	0.739
1902.5	0.74189
1903	0.74485
1903.5	0.74787
1904	0.75093
1904.5	0.75399
1905	0.75699
1905.5	0.7599
1906	0.76266
1906.5	0.7652
1907	0.76744
1907.5	0.76931
1908	0.77073
1908.5	0.77166
1909	0.7721
1909.5	0.77208
1910	0.77162
1910.5	0.77076
1911	0.76956
1911.5	0.76805
1912	0.76628
1912.5	0.76424
1913	0.76194
1913.5	0.75939
1914	0.75657
1914.5	0.7535
1915	0.75019
1915.5	0.7467
1916	0.7431
1916.5	0.73945
1917	0.73578
1917.5	0.7321
1918	0.72841
1918.5	0.72471
1919	0.72097
1919.5	0.7172
1920	0.71338
1920.5	0.70951
1921	0.70558
1921.5	0.70159
1922	0.69753
1922.5	0.69344
1923	0.68931
1923.5	0.68517
1924	0.68104
1924.5	0.67694
1925	0.67291
1925.5	0.66893
1926	0.66504
1926.5	0.66124
1927	0.65753
1927.5	0.65391
1928	0.65039
1928.5	0.64696
1929	0.64363
1929.5	0.64038
1930	0.63721
1930.5	0.63413
1931	0.63112
1931.5	0.62818
1932	0.6253
1932.5	0.6225
1933	0.61975
1933.5	0.61707
1934	0.61444
1934.5	0.61187
1935	0.60936
1935.5	0.60691
1936	0.60451
1936.5	0.60215
1937	0.59985
1937.5	0.59759
1938	0.59536
1938.5	0.59318
1939	0.59102
1939.5	0.58891
1940	0.58683
1940.5	0.5848
1941	0.58281
1941.5	0.58086
1942	0.57895
1942.5	0.57709
1943	0.57526
1943.5	0.57348
1944	0.57173
1944.5	0.57004
1945	0.56839
1945.5	0.56679
1946	0.56525
1946.5	0.56376
1947	0.56231
1947.5	0.56091
1948	0.55955
1948.5	0.55822
1949	0.55693
1949.5	0.55568
1950	0.55446
1950.5	0.55327
1951	0.55211
1951.5	0.55098
1952	0.54987
1952.5	0.54878
1953	0.54772
1953.5	0.54668
1954	0.54566
1954.5	0.54466
1955	0.54367
1955.5	0.5427
1956	0.54175
1956.5	0.54082
1957	0.53991
1957.5	0.53901
1958	0.53813
1958.5	0.53727
1959	0.53642
1959.5	0.53559
1960	0.53478
1960.5	0.53398
1961	0.5332
1961.5	0.53243
1962	0.53168
1962.5	0.53094
1963	0.53022
1963.5	0.5295
1964	0.5288
1964.5	0.52812
1965	0.52744
1965.5	0.52678
1966	0.52613
1966.5	0.52549
1967	0.52487
1967.5	0.52426
1968	0.52366
1968.5	0.52307
1969	0.52249
1969.5	0.52193
1970	0.52137
1970.5	0.52083
1971	0.5203
1971.5	0.51978
1972	0.51927
1972.5	0.51878
1973	0.51829
1973.5	0.51781
1974	0.51735
1974.5	0.51689
1975	0.51645
1975.5	0.51601
1976	0.51559
1976.5	0.51518
1977	0.51479
1977.5	0.5144
1978	0.51403
1978.5	0.51367
1979	0.51332
1979.5	0.51298
1980	0.51265
1980.5	0.51233
1981	0.51202
1981.5	0.51173
1982	0.51144
1982.5	0.51117
1983	0.51091
1983.5	0.51065
1984	0.51041
1984.5	0.51017
1985	0.50995
1985.5	0.50973
1986	0.50952
1986.5	0.50932
1987	0.50913
1987.5	0.50895
1988	0.50878
1988.5	0.50861
1989	0.50845
1989.5	0.50829
1990	0.50814
1990.5	0.508
1991	0.50786
1991.5	0.50772
1992	0.50758
1992.5	0.50745
1993	0.50732
1993.5	0.5072
1994	0.50707
1994.5	0.50695
1995	0.50683
1995.5	0.5067
1996	0.50658
1996.5	0.50646
1997	0.50633
1997.5	0.50621
1998	0.50608
1998.5	0.50596
1999	0.50583
1999.5	0.5057
2000	0.50556
2000.5	0.50543